LabVIEW Measurement,
Writer_Version,2
Reader_Version,2
Separator,Comma
Decimal_Separator,.
Multi_Headings,Yes
X_Columns,Multi
Time_Pref,Relative
Operator,Matthew Whetham
Date,2024/11/04
Time,16:37:03.7232847213745117188
***End_of_Header***,
,
Channels,1,
Samples,1000,
Date,2024/11/04,
Time,16:37:03.7232847213745117188,
X_Dimension,Time,
X0,0.0000000000000000E+0,
Delta_X,1.000000,
***End_of_Header***,,
X_Value,Untitled,Comment
0.000000,0.001109
1.000000,-0.000166
2.000000,0.000153
3.000000,-0.000166
4.000000,-0.000803
5.000000,-0.000803
6.000000,-0.000803
7.000000,-0.000484
8.000000,-0.000166
9.000000,0.000790
10.000000,0.000153
11.000000,0.000153
12.000000,-0.000166
13.000000,0.001109
14.000000,0.004295
15.000000,0.000472
16.000000,0.000153
17.000000,0.000153
18.000000,0.001746
19.000000,0.000790
20.000000,0.000790
21.000000,0.000153
22.000000,0.000790
23.000000,0.002383
24.000000,0.005889
25.000000,0.000790
26.000000,0.001428
27.000000,0.001428
28.000000,0.001109
29.000000,-0.000166
30.000000,0.000790
31.000000,0.000472
32.000000,0.001109
33.000000,0.000790
34.000000,-0.000803
35.000000,-0.001122
36.000000,-0.000166
37.000000,0.000472
38.000000,-0.001122
39.000000,0.000472
40.000000,0.001428
41.000000,0.001109
42.000000,-0.000166
43.000000,-0.000484
44.000000,-0.000484
45.000000,-0.000484
46.000000,0.000153
47.000000,-0.000803
48.000000,-0.000803
49.000000,-0.000484
50.000000,-0.001440
51.000000,-0.001122
52.000000,-0.000166
53.000000,0.000153
54.000000,-0.000803
55.000000,0.000153
56.000000,-0.000803
57.000000,-0.001122
58.000000,-0.001759
59.000000,-0.001440
60.000000,-0.001122
61.000000,-0.000484
62.000000,-0.001440
63.000000,-0.000484
64.000000,-0.000484
65.000000,-0.002396
66.000000,0.000153
67.000000,-0.001122
68.000000,-0.000484
69.000000,-0.000166
70.000000,-0.000803
71.000000,-0.000803
72.000000,-0.001122
73.000000,-0.000166
74.000000,-0.000803
75.000000,-0.001440
76.000000,-0.000803
77.000000,-0.000166
78.000000,-0.001122
79.000000,-0.000803
80.000000,-0.000166
81.000000,0.000153
82.000000,0.000153
83.000000,-0.000484
84.000000,-0.001122
85.000000,-0.000484
86.000000,-0.000803
87.000000,-0.000166
88.000000,-0.000803
89.000000,-0.001759
90.000000,0.000153
91.000000,0.000153
92.000000,-0.000166
93.000000,-0.001122
94.000000,-0.000803
95.000000,-0.000166
96.000000,-0.001122
97.000000,-0.000484
98.000000,-0.001122
99.000000,-0.000484
100.000000,-0.001440
101.000000,-0.002396
102.000000,-0.000803
103.000000,-0.001440
104.000000,0.000153
105.000000,-0.001440
106.000000,-0.001122
107.000000,-0.000803
108.000000,-0.001122
109.000000,-0.000803
110.000000,-0.001759
111.000000,-0.000803
112.000000,0.000153
113.000000,-0.000484
114.000000,-0.001122
115.000000,-0.001122
116.000000,-0.001759
117.000000,-0.002715
118.000000,0.000153
119.000000,-0.001759
120.000000,0.000153
121.000000,-0.001122
122.000000,0.000153
123.000000,-0.001122
124.000000,0.000153
125.000000,0.000472
126.000000,0.000472
127.000000,0.000153
128.000000,0.001109
129.000000,-0.000166
130.000000,0.000790
131.000000,0.001109
132.000000,0.000153
133.000000,0.000153
134.000000,0.000153
135.000000,0.000153
136.000000,0.000790
137.000000,0.001428
138.000000,-0.000166
139.000000,0.003977
140.000000,-0.000803
141.000000,0.000472
142.000000,0.001109
143.000000,0.001428
144.000000,0.002065
145.000000,0.001109
146.000000,0.000790
147.000000,0.002383
148.000000,0.001109
149.000000,0.002383
150.000000,0.001428
151.000000,0.002065
152.000000,0.001746
153.000000,0.002065
154.000000,0.000472
155.000000,0.002702
156.000000,0.000153
157.000000,0.000472
158.000000,-0.000166
159.000000,-0.000166
160.000000,0.000153
161.000000,-0.000166
162.000000,0.000153
163.000000,0.000153
164.000000,-0.000166
165.000000,0.001109
166.000000,0.000472
167.000000,0.000153
168.000000,-0.000166
169.000000,0.002702
170.000000,0.002702
171.000000,-0.003352
172.000000,0.000153
173.000000,0.001109
174.000000,0.001109
175.000000,0.000472
176.000000,0.001109
177.000000,-0.000803
178.000000,0.000153
179.000000,-0.000803
180.000000,0.000153
181.000000,0.002383
182.000000,-0.000166
183.000000,0.000153
184.000000,-0.001122
185.000000,-0.001122
186.000000,-0.000803
187.000000,-0.000484
188.000000,-0.000803
189.000000,0.000153
190.000000,0.001109
191.000000,-0.002078
192.000000,-0.002715
193.000000,-0.000484
194.000000,-0.000803
195.000000,-0.001122
196.000000,-0.001122
197.000000,-0.001122
198.000000,-0.001122
199.000000,-0.001122
200.000000,-0.001759
201.000000,-0.001759
202.000000,-0.001122
203.000000,-0.001759
204.000000,-0.001122
205.000000,-0.000166
206.000000,-0.001122
207.000000,-0.002396
208.000000,-0.002078
209.000000,-0.001122
210.000000,-0.001759
211.000000,-0.002396
212.000000,-0.000803
213.000000,-0.001759
214.000000,-0.001759
215.000000,-0.002078
216.000000,-0.001122
217.000000,-0.002715
218.000000,-0.001759
219.000000,-0.001122
220.000000,-0.001122
221.000000,-0.001122
222.000000,-0.001122
223.000000,-0.001759
224.000000,-0.000484
225.000000,-0.001122
226.000000,-0.001440
227.000000,-0.001440
228.000000,-0.001122
229.000000,-0.001440
230.000000,-0.000803
231.000000,-0.000803
232.000000,-0.002078
233.000000,-0.001122
234.000000,-0.000803
235.000000,-0.001122
236.000000,-0.000484
237.000000,-0.001440
238.000000,-0.002715
239.000000,-0.001759
240.000000,-0.002396
241.000000,0.000472
242.000000,-0.000166
243.000000,-0.000484
244.000000,-0.000484
245.000000,-0.000166
246.000000,-0.000166
247.000000,0.000153
248.000000,0.000153
249.000000,0.001428
250.000000,0.001109
251.000000,0.000472
252.000000,-0.000484
253.000000,0.000790
254.000000,-0.000484
255.000000,0.000153
256.000000,0.000153
257.000000,-0.000166
258.000000,-0.000166
259.000000,0.000472
260.000000,0.000153
261.000000,0.000472
262.000000,0.001428
263.000000,0.000790
264.000000,0.000153
265.000000,-0.000166
266.000000,-0.000166
267.000000,0.001746
268.000000,0.001109
269.000000,0.000472
270.000000,-0.000166
271.000000,0.000472
272.000000,0.001746
273.000000,0.002702
274.000000,0.006207
275.000000,-0.001122
276.000000,0.001428
277.000000,-0.000166
278.000000,-0.000484
279.000000,-0.002078
280.000000,0.001428
281.000000,0.000790
282.000000,0.000790
283.000000,0.000153
284.000000,0.000153
285.000000,0.000472
286.000000,0.002065
287.000000,-0.000166
288.000000,0.000153
289.000000,0.000153
290.000000,0.000153
291.000000,0.000790
292.000000,0.000472
293.000000,0.000153
294.000000,-0.002078
295.000000,0.000153
296.000000,-0.001122
297.000000,0.000790
298.000000,-0.001122
299.000000,-0.000484
300.000000,0.000153
301.000000,-0.000484
302.000000,-0.001122
303.000000,-0.000484
304.000000,-0.000484
305.000000,0.000472
306.000000,-0.001122
307.000000,-0.001122
308.000000,0.000472
309.000000,0.000153
310.000000,-0.000803
311.000000,-0.000803
312.000000,-0.000484
313.000000,-0.000166
314.000000,-0.000484
315.000000,-0.000166
316.000000,-0.001122
317.000000,-0.002715
318.000000,-0.000166
319.000000,-0.000803
320.000000,-0.000484
321.000000,-0.001122
322.000000,-0.000484
323.000000,-0.001122
324.000000,0.000153
325.000000,-0.003352
326.000000,0.001746
327.000000,-0.000166
328.000000,0.000153
329.000000,-0.000803
330.000000,-0.001122
331.000000,-0.000803
332.000000,0.001746
333.000000,-0.001440
334.000000,-0.000803
335.000000,-0.001122
336.000000,0.001746
337.000000,-0.001440
338.000000,-0.001122
339.000000,-0.000803
340.000000,0.000153
341.000000,-0.001122
342.000000,-0.000484
343.000000,-0.001122
344.000000,-0.000484
345.000000,0.000153
346.000000,-0.001122
347.000000,-0.000484
348.000000,-0.000484
349.000000,-0.000484
350.000000,-0.001122
351.000000,-0.000803
352.000000,-0.000166
353.000000,-0.000803
354.000000,-0.000166
355.000000,-0.000803
356.000000,-0.000803
357.000000,-0.000803
358.000000,-0.001122
359.000000,-0.001122
360.000000,0.000153
361.000000,-0.000484
362.000000,0.000153
363.000000,0.000153
364.000000,0.000153
365.000000,0.000153
366.000000,0.000472
367.000000,0.001428
368.000000,0.001109
369.000000,-0.000484
370.000000,0.001109
371.000000,0.000472
372.000000,0.000153
373.000000,0.000790
374.000000,0.000790
375.000000,-0.000166
376.000000,0.000790
377.000000,-0.000166
378.000000,0.000790
379.000000,0.000153
380.000000,0.000153
381.000000,0.000790
382.000000,0.000790
383.000000,0.000472
384.000000,0.000790
385.000000,0.001109
386.000000,0.000153
387.000000,0.000790
388.000000,0.000153
389.000000,0.000153
390.000000,0.000153
391.000000,0.000790
392.000000,-0.000803
393.000000,-0.000484
394.000000,0.000472
395.000000,-0.002396
396.000000,0.000472
397.000000,0.000153
398.000000,-0.001122
399.000000,-0.000803
400.000000,-0.000803
401.000000,0.000153
402.000000,0.001428
403.000000,-0.000803
404.000000,0.000153
405.000000,-0.000803
406.000000,-0.000803
407.000000,0.000153
408.000000,0.000472
409.000000,0.001746
410.000000,0.000153
411.000000,0.000153
412.000000,-0.000484
413.000000,-0.000484
414.000000,-0.000803
415.000000,0.000153
416.000000,-0.000166
417.000000,-0.000166
418.000000,-0.002078
419.000000,0.000153
420.000000,0.000153
421.000000,-0.000484
422.000000,0.000153
423.000000,0.001109
424.000000,0.000790
425.000000,-0.000803
426.000000,-0.000803
427.000000,-0.000803
428.000000,-0.000803
429.000000,0.000153
430.000000,-0.000166
431.000000,0.000153
432.000000,0.000790
433.000000,-0.002715
434.000000,0.000790
435.000000,0.002383
436.000000,-0.001440
437.000000,-0.000484
438.000000,-0.001440
439.000000,-0.001122
440.000000,-0.001759
441.000000,-0.000803
442.000000,0.003977
443.000000,-0.001122
444.000000,-0.001122
445.000000,-0.001759
446.000000,-0.001122
447.000000,-0.001440
448.000000,-0.001440
449.000000,-0.001759
450.000000,-0.000803
451.000000,-0.001440
452.000000,-0.000484
453.000000,-0.002078
454.000000,-0.001122
455.000000,-0.000803
456.000000,-0.001122
457.000000,-0.002078
458.000000,-0.000803
459.000000,-0.000484
460.000000,-0.001122
461.000000,-0.000803
462.000000,-0.000803
463.000000,-0.001122
464.000000,-0.000484
465.000000,-0.000803
466.000000,-0.001122
467.000000,-0.001440
468.000000,-0.001440
469.000000,-0.000166
470.000000,-0.000803
471.000000,-0.000803
472.000000,-0.000803
473.000000,0.000153
474.000000,0.000472
475.000000,-0.001440
476.000000,0.000153
477.000000,0.000153
478.000000,-0.000484
479.000000,0.000153
480.000000,0.001109
481.000000,0.000153
482.000000,0.002702
483.000000,0.000153
484.000000,-0.001440
485.000000,0.000153
486.000000,-0.000803
487.000000,0.000472
488.000000,-0.000166
489.000000,-0.000803
490.000000,0.000790
491.000000,0.000472
492.000000,0.001109
493.000000,0.002383
494.000000,0.000153
495.000000,0.000153
496.000000,-0.000166
497.000000,0.001428
498.000000,0.000472
499.000000,0.000472
500.000000,0.000790
501.000000,0.001428
502.000000,0.000472
503.000000,-0.000166
504.000000,0.000472
505.000000,0.002383
506.000000,-0.000166
507.000000,0.000790
508.000000,0.000472
509.000000,0.001746
510.000000,-0.000484
511.000000,0.000153
512.000000,0.000153
513.000000,0.000153
514.000000,0.000153
515.000000,-0.000803
516.000000,0.000790
517.000000,-0.000484
518.000000,-0.000166
519.000000,0.000472
520.000000,-0.000803
521.000000,0.000153
522.000000,0.000790
523.000000,0.000472
524.000000,0.000472
525.000000,-0.001122
526.000000,-0.000166
527.000000,0.000153
528.000000,0.000153
529.000000,-0.000166
530.000000,-0.000166
531.000000,0.000472
532.000000,0.000472
533.000000,0.004614
534.000000,0.000153
535.000000,0.000790
536.000000,-0.000803
537.000000,0.001109
538.000000,-0.000803
539.000000,-0.000484
540.000000,0.001109
541.000000,-0.000166
542.000000,0.000153
543.000000,-0.001122
544.000000,0.000153
545.000000,-0.000166
546.000000,-0.000803
547.000000,0.000790
548.000000,-0.001440
549.000000,-0.001122
550.000000,0.000153
551.000000,0.000790
552.000000,-0.000803
553.000000,-0.000166
554.000000,0.000153
555.000000,-0.000166
556.000000,-0.000803
557.000000,-0.001122
558.000000,-0.001122
559.000000,-0.000166
560.000000,-0.001122
561.000000,-0.000803
562.000000,-0.001122
563.000000,-0.002078
564.000000,-0.001122
565.000000,-0.001122
566.000000,-0.000484
567.000000,-0.001440
568.000000,-0.000803
569.000000,-0.001122
570.000000,-0.000484
571.000000,-0.001440
572.000000,-0.001440
573.000000,0.000472
574.000000,-0.001122
575.000000,0.000153
576.000000,-0.001440
577.000000,-0.000166
578.000000,0.000153
579.000000,-0.000484
580.000000,-0.001122
581.000000,-0.000484
582.000000,0.001109
583.000000,-0.000166
584.000000,-0.001122
585.000000,-0.002715
586.000000,-0.001122
587.000000,0.000472
588.000000,0.001746
589.000000,-0.000484
590.000000,0.000790
591.000000,0.002702
592.000000,0.003658
593.000000,-0.000166
594.000000,-0.000166
595.000000,0.000472
596.000000,0.000472
597.000000,0.000472
598.000000,0.002702
599.000000,0.000153
600.000000,0.000790
601.000000,0.001746
602.000000,-0.000484
603.000000,0.000472
604.000000,0.000472
605.000000,0.000153
606.000000,0.001109
607.000000,0.001746
608.000000,0.001109
609.000000,0.000472
610.000000,-0.000803
611.000000,-0.000484
612.000000,-0.000166
613.000000,-0.000803
614.000000,0.000153
615.000000,-0.000803
616.000000,-0.000803
617.000000,-0.000484
618.000000,-0.000803
619.000000,-0.000803
620.000000,-0.000803
621.000000,-0.000803
622.000000,-0.000803
623.000000,0.000790
624.000000,-0.001759
625.000000,-0.000166
626.000000,-0.000803
627.000000,0.000153
628.000000,0.000472
629.000000,0.000153
630.000000,0.000472
631.000000,0.000790
632.000000,0.000790
633.000000,-0.000166
634.000000,-0.000166
635.000000,-0.000803
636.000000,-0.000166
637.000000,-0.002078
638.000000,-0.001122
639.000000,0.000790
640.000000,0.001746
641.000000,0.002383
642.000000,0.001109
643.000000,-0.002078
644.000000,-0.000166
645.000000,0.002383
646.000000,0.000153
647.000000,-0.000484
648.000000,0.000153
649.000000,0.002065
650.000000,-0.001122
651.000000,-0.000484
652.000000,-0.001122
653.000000,0.001109
654.000000,0.000472
655.000000,-0.000166
656.000000,-0.001440
657.000000,0.000472
658.000000,-0.000803
659.000000,-0.001122
660.000000,-0.000803
661.000000,0.000153
662.000000,-0.000166
663.000000,-0.000166
664.000000,-0.000484
665.000000,-0.000484
666.000000,-0.000166
667.000000,-0.001122
668.000000,-0.001122
669.000000,-0.001122
670.000000,-0.001440
671.000000,-0.001122
672.000000,-0.001122
673.000000,-0.001759
674.000000,-0.001759
675.000000,-0.001122
676.000000,-0.000803
677.000000,-0.001122
678.000000,-0.001122
679.000000,-0.000803
680.000000,-0.001440
681.000000,-0.001759
682.000000,-0.001122
683.000000,-0.000803
684.000000,-0.001759
685.000000,-0.000484
686.000000,-0.001122
687.000000,-0.001122
688.000000,-0.001122
689.000000,-0.001759
690.000000,-0.000484
691.000000,-0.000484
692.000000,-0.001440
693.000000,-0.001122
694.000000,-0.001122
695.000000,-0.000484
696.000000,-0.000484
697.000000,-0.000484
698.000000,-0.000803
699.000000,-0.002715
700.000000,-0.001440
701.000000,-0.000484
702.000000,-0.000166
703.000000,-0.000484
704.000000,0.000153
705.000000,-0.000166
706.000000,0.000472
707.000000,0.000790
708.000000,-0.000166
709.000000,0.002383
710.000000,-0.000484
711.000000,0.000790
712.000000,-0.000803
713.000000,0.000153
714.000000,0.000153
715.000000,0.000790
716.000000,0.000472
717.000000,-0.000166
718.000000,0.000472
719.000000,-0.001122
720.000000,-0.001122
721.000000,-0.000484
722.000000,0.001109
723.000000,-0.000166
724.000000,0.000153
725.000000,0.001428
726.000000,-0.000484
727.000000,-0.000166
728.000000,-0.000166
729.000000,-0.000484
730.000000,-0.000484
731.000000,-0.000166
732.000000,-0.000803
733.000000,0.000153
734.000000,0.000790
735.000000,-0.000803
736.000000,-0.000484
737.000000,0.000153
738.000000,-0.000803
739.000000,0.000790
740.000000,-0.000166
741.000000,-0.000484
742.000000,-0.002078
743.000000,0.000153
744.000000,0.000472
745.000000,0.000472
746.000000,0.000153
747.000000,0.001109
748.000000,0.000790
749.000000,0.001109
750.000000,-0.000803
751.000000,0.001428
752.000000,0.000790
753.000000,0.001109
754.000000,0.000153
755.000000,0.001746
756.000000,0.000153
757.000000,0.000153
758.000000,0.001746
759.000000,0.001109
760.000000,0.000472
761.000000,0.000153
762.000000,0.003021
763.000000,0.000790
764.000000,-0.000166
765.000000,0.000153
766.000000,0.000790
767.000000,0.001109
768.000000,-0.000166
769.000000,-0.000484
770.000000,0.000153
771.000000,0.000153
772.000000,0.000790
773.000000,-0.001440
774.000000,-0.000166
775.000000,0.001746
776.000000,0.000153
777.000000,-0.000484
778.000000,-0.000803
779.000000,-0.000166
780.000000,0.000153
781.000000,-0.000166
782.000000,0.000153
783.000000,-0.001122
784.000000,-0.001122
785.000000,-0.000484
786.000000,-0.001122
787.000000,-0.001122
788.000000,-0.001122
789.000000,-0.001122
790.000000,-0.000166
791.000000,-0.000803
792.000000,-0.003671
793.000000,-0.000803
794.000000,-0.002715
795.000000,0.002065
796.000000,-0.000803
797.000000,-0.001122
798.000000,-0.000166
799.000000,-0.000166
800.000000,-0.003352
801.000000,-0.001122
802.000000,-0.000484
803.000000,-0.001122
804.000000,-0.000484
805.000000,-0.001122
806.000000,-0.002078
807.000000,-0.000484
808.000000,-0.000484
809.000000,0.000153
810.000000,-0.001122
811.000000,-0.000484
812.000000,-0.001122
813.000000,-0.000166
814.000000,0.000153
815.000000,0.000790
816.000000,-0.001440
817.000000,0.000153
818.000000,0.001109
819.000000,-0.000803
820.000000,0.000790
821.000000,-0.000484
822.000000,0.000472
823.000000,0.000153
824.000000,-0.000484
825.000000,0.000790
826.000000,-0.000484
827.000000,0.000472
828.000000,0.000153
829.000000,0.000790
830.000000,0.000790
831.000000,0.000153
832.000000,0.001109
833.000000,-0.001122
834.000000,0.000153
835.000000,0.000153
836.000000,0.000472
837.000000,-0.000484
838.000000,-0.000166
839.000000,0.000472
840.000000,0.000790
841.000000,-0.001122
842.000000,0.001109
843.000000,-0.000166
844.000000,-0.000484
845.000000,-0.000166
846.000000,-0.000166
847.000000,-0.000166
848.000000,-0.000166
849.000000,-0.000166
850.000000,0.000790
851.000000,-0.000803
852.000000,-0.000166
853.000000,0.000472
854.000000,0.000153
855.000000,-0.000166
856.000000,0.000472
857.000000,-0.000484
858.000000,-0.001122
859.000000,-0.000803
860.000000,0.000153
861.000000,0.000153
862.000000,0.000153
863.000000,-0.000484
864.000000,-0.000484
865.000000,0.000153
866.000000,-0.000166
867.000000,0.000472
868.000000,-0.000166
869.000000,0.000153
870.000000,0.000472
871.000000,0.000472
872.000000,0.000153
873.000000,0.000153
874.000000,0.000153
875.000000,0.000472
876.000000,0.000153
877.000000,0.000153
878.000000,-0.000484
879.000000,0.000472
880.000000,0.001109
881.000000,0.000472
882.000000,-0.000166
883.000000,-0.000803
884.000000,0.001109
885.000000,0.000153
886.000000,-0.000484
887.000000,0.000153
888.000000,0.000790
889.000000,-0.000803
890.000000,0.000153
891.000000,-0.000803
892.000000,-0.000484
893.000000,0.000790
894.000000,-0.000484
895.000000,-0.000484
896.000000,0.000153
897.000000,-0.000166
898.000000,0.000153
899.000000,-0.003990
900.000000,-0.004627
901.000000,0.000790
902.000000,-0.000803
903.000000,0.001428
904.000000,-0.001122
905.000000,-0.001122
906.000000,-0.001440
907.000000,-0.000803
908.000000,-0.000803
909.000000,-0.001122
910.000000,-0.000484
911.000000,-0.000803
912.000000,-0.000484
913.000000,-0.001440
914.000000,-0.001122
915.000000,-0.001440
916.000000,-0.000803
917.000000,-0.003671
918.000000,-0.001759
919.000000,0.000472
920.000000,-0.001122
921.000000,-0.002078
922.000000,0.001109
923.000000,-0.001440
924.000000,-0.001759
925.000000,-0.001122
926.000000,-0.001440
927.000000,-0.001122
928.000000,-0.000803
929.000000,-0.000166
930.000000,-0.001122
931.000000,-0.000484
932.000000,-0.000484
933.000000,0.000790
934.000000,0.002383
935.000000,-0.001122
936.000000,0.000790
937.000000,0.000472
938.000000,0.000153
939.000000,-0.000803
940.000000,-0.000803
941.000000,0.000153
942.000000,-0.000484
943.000000,-0.000166
944.000000,-0.000166
945.000000,-0.000803
946.000000,-0.000484
947.000000,0.000472
948.000000,-0.000166
949.000000,-0.000166
950.000000,0.003977
951.000000,0.003021
952.000000,0.000472
953.000000,-0.000166
954.000000,0.000153
955.000000,0.000790
956.000000,0.000472
957.000000,0.000472
958.000000,-0.000803
959.000000,0.000472
960.000000,0.000790
961.000000,0.001428
962.000000,-0.000484
963.000000,0.000153
964.000000,-0.000166
965.000000,-0.000166
966.000000,0.003339
967.000000,-0.000166
968.000000,0.000153
969.000000,0.001428
970.000000,-0.000484
971.000000,-0.000166
972.000000,-0.002715
973.000000,0.000472
974.000000,0.000472
975.000000,-0.001440
976.000000,-0.001122
977.000000,-0.000166
978.000000,-0.000484
979.000000,-0.000484
980.000000,-0.000803
981.000000,0.000153
982.000000,-0.000803
983.000000,-0.000166
984.000000,-0.000484
985.000000,-0.000803
986.000000,0.000472
987.000000,0.000153
988.000000,-0.000803
989.000000,0.001428
990.000000,0.000472
991.000000,-0.000166
992.000000,0.000790
993.000000,0.002065
994.000000,0.000153
995.000000,0.001109
996.000000,0.000790
997.000000,0.000790
998.000000,0.000153
999.000000,-0.000166

